*RAS_DATA_START
*RAS_HEADER_START
*DISP_FMT_X "%.3f"
*DISP_FMT_Y "%.0f"
*DISP_FULLSCALE "44504386.0376923080"
*DISP_LINE_COLOR "255.0000000000"
*DISP_LINE_STYLE "0.0000000000"
*DISP_LINE_WIDTH "0.2500000000"
*DISP_NOTE "Collected Data-14"
*DISP_OFFSET_Y "0.0000000000"
*DISP_PEAKSEARCH_UNIT_Y "cps"
*DISP_RANGE_BOTTOM "0.0100000000"
*DISP_RANGE_LEFT "0.0000000000"
*DISP_RANGE_LOGCUTOFF "0.0100000000"
*DISP_RANGE_RIGHT "19.9992000000"
*DISP_RANGE_TOP "44504386.0376923080"
*DISP_SCALE_MODE_Y "2.0000000000"
*DISP_TAB_NAME "2-Theta/Omega"
*DISP_TITLE_Y "Intensity"
*DISP_UNIT_Y "cps"
*DISP_WINDOW_NAME "MSG_MACROENGINE"
*FILE_COMMENT " "
*FILE_MD5 ""
*FILE_MEMO " "
*FILE_OPERATOR "Administrator"
*FILE_SAMPLE " "
*FILE_TYPE "RAS_RAW"
*FILE_USERGROUP "System Manager"
*FILE_VERSION "1.0000000000"
*HW_ATTACHMENT_ID "ATT0022"
*HW_ATTACHMENT_NAME "RxRy|RxRy"
*HW_COUNTER_ID-0 "CUT0021"
*HW_COUNTER_ID-1 "CUT0020"
*HW_COUNTER_ID-2 ""
*HW_COUNTER_ID-3 "CSL0021"
*HW_COUNTER_ID-4 "CMC0021"
*HW_COUNTER_NAME-0 "SC-70|SC-70"
*HW_COUNTER_NAME-1 "None|None"
*HW_COUNTER_NAME-2 ""
*HW_COUNTER_NAME-3 "BBM|BBM"
*HW_COUNTER_NAME-4 "検出器モノクロメータ|Detector monochromator"
*HW_COUNTER_SELECT_NAME "SC-70|SC-70"
*HW_ECP_HV "660.0000000000"
*HW_ECP_HV_UNIT "V"
*HW_GONIOMETER_ID "GON0023"
*HW_GONIOMETER_NAME "SmartLab|SmartLab"
*HW_GONIOMETER_RADIUS-0 "90.0"
*HW_GONIOMETER_RADIUS-1 "114.0"
*HW_GONIOMETER_RADIUS-2 "190.0"
*HW_GONIOMETER_RADIUS-3 "300.0"
*HW_GONIOMETER_RADIUS-4 "187.0"
*HW_GONIOMETER_RADIUS-5 "300.0"
*HW_GONIOMETER_RADIUS-6 "113.0"
*HW_GONIOMETER_RADIUS-7 "331.0"
*HW_I_OPT_ID-0 "CBO0021"
*HW_I_OPT_ID-1 "ICR0021"
*HW_I_OPT_ID-2 "ISL0021"
*HW_I_OPT_ID-3 "ISO0021"
*HW_I_OPT_ID-4 "IAD0021"
*HW_I_OPT_ID-5 "IPR0001"
*HW_I_OPT_NAME-0 "CBOユニット|CBO unit"
*HW_I_OPT_NAME-1 "標準入射光学ユニット|Standard incident optical unit"
*HW_I_OPT_NAME-2 "標準入射スリットボックス|Standard incident slit box"
*HW_I_OPT_NAME-3 "入射平行スリット|Incident parallel slit"
*HW_I_OPT_NAME-4 "長手制限スリット|Length limiting slit"
*HW_I_OPT_NAME-5 "None|None"
*HW_R_ATTENUATER_AUTOMODE "1"
*HW_R_OPT_ID-0 "RSS0021"
*HW_R_OPT_ID-1 "RCR0022"
*HW_R_OPT_ID-2 "RSO0021"
*HW_R_OPT_ID-3 "RRS0021"
*HW_R_OPT_ID-4 "ATN0021"
*HW_R_OPT_ID-5 "RFL0021"
*HW_R_OPT_ID-6 "RAD0021"
*HW_R_OPT_NAME-0 "標準受光スリットボックス1|Standard receiving slit box # 1"
*HW_R_OPT_NAME-1 "標準受光光学ユニット1|Standard receiving unit # 1"
*HW_R_OPT_NAME-2 "標準受光光学ユニット2|Standard receiving optical unit # 2"
*HW_R_OPT_NAME-3 "標準受光スリットボックス2|Standard receiving slit box # 2"
*HW_R_OPT_NAME-4 "標準アッテネータ|Standard Attenuator"
*HW_R_OPT_NAME-5 "Cu Kβ|Cu K-beta"
*HW_R_OPT_NAME-6 "調整用受光スリット|Alignment receiving slit"
*HW_SAMPLE_HOLDER_ID "SMP0023"
*HW_SAMPLE_HOLDER_NAME "標準Zステージ|Standard Z stage"
*HW_XG_CURRENT_MAX "200"
*HW_XG_CURRENT_MIN "10"
*HW_XG_CURRENT_RESOLUTION "2"
*HW_XG_CURRENT_UNIT "mA"
*HW_XG_FOCUS ""
*HW_XG_FOCUS_TYPE "Normal"
*HW_XG_ID ""
*HW_XG_NAME "9kW 開放管(45kV 200mA ID:1700)|9kW Rotating anode(45kV 200mA ID:1700)"
*HW_XG_TARGET_ATOMIC_NUMBER "29.0000000000"
*HW_XG_TARGET_NAME "Cu"
*HW_XG_TYPE "Rota"
*HW_XG_VOLTAGE_MAX "45"
*HW_XG_VOLTAGE_MIN "20"
*HW_XG_VOLTAGE_RESOLUTION "2"
*HW_XG_VOLTAGE_UNIT "kV"
*HW_XG_WATT_MAX "9"
*HW_XG_WATT_UNIT "kW"
*HW_XG_WAVE_LENGTH_ALPHA1 "1.540593"
*HW_XG_WAVE_LENGTH_ALPHA2 "1.544414"
*HW_XG_WAVE_LENGTH_BETA "1.392250"
*MEAS_COND_AXIS_NAME-0 "Theta/2-Theta"
*MEAS_COND_AXIS_NAME-1 "2-Theta"
*MEAS_COND_AXIS_NAME-2 "Omega"
*MEAS_COND_AXIS_NAME-3 "2-Theta/Omega"
*MEAS_COND_AXIS_NAME-4 "Z"
*MEAS_COND_AXIS_NAME-5 "Rx"
*MEAS_COND_AXIS_NAME-6 "Ry"
*MEAS_COND_AXIS_NAME-7 "Attenuator"
*MEAS_COND_AXIS_NAME-8 "Theta_s"
*MEAS_COND_AXIS_NAME-9 "Theta_d"
*MEAS_COND_AXIS_NAME-10 "Ts"
*MEAS_COND_AXIS_NAME-11 "M"
*MEAS_COND_AXIS_NAME-12 "Omega_m"
*MEAS_COND_AXIS_NAME-13 "Incident slit"
*MEAS_COND_AXIS_NAME-14 ""
*MEAS_COND_AXIS_NAME-15 "Zs"
*MEAS_COND_AXIS_NAME-16 "Receiving slit # 1"
*MEAS_COND_AXIS_NAME-17 ""
*MEAS_COND_AXIS_NAME-18 "Receiving slit # 2"
*MEAS_COND_AXIS_NAME-19 ""
*MEAS_COND_AXIS_NAME-20 "Zd"
*MEAS_COND_AXIS_NAME-21 "CBO selection slit"
*MEAS_COND_AXIS_NAME-22 "Incident optical device"
*MEAS_COND_AXIS_NAME-23 "Incident parallel slit"
*MEAS_COND_AXIS_NAME-24 "Length limiting slit"
*MEAS_COND_AXIS_NAME-25 "Center slit"
*MEAS_COND_AXIS_NAME-26 "Filter"
*MEAS_COND_AXIS_NAME-27 "Receiving optical device"
*MEAS_COND_AXIS_NAME-28 "Receiving parallel slit"
*MEAS_COND_AXIS_NAME-29 "Alignment receiving slit"
*MEAS_COND_AXIS_NAME-30 "Diffracted beam monochromator"
*MEAS_COND_AXIS_NAME-31 "Monochromator slit"
*MEAS_COND_AXIS_NAME-32 "Primary beam"
*MEAS_COND_AXIS_NAME-33 "HV"
*MEAS_COND_AXIS_NAME-34 "PHA"
*MEAS_COND_AXIS_NAME_INTERNAL-0 "TwoThetaTheta"
*MEAS_COND_AXIS_NAME_INTERNAL-1 "TwoTheta"
*MEAS_COND_AXIS_NAME_INTERNAL-2 "Omega"
*MEAS_COND_AXIS_NAME_INTERNAL-3 "TwoThetaOmega"
*MEAS_COND_AXIS_NAME_INTERNAL-4 "Z"
*MEAS_COND_AXIS_NAME_INTERNAL-5 "Rx"
*MEAS_COND_AXIS_NAME_INTERNAL-6 "Ry"
*MEAS_COND_AXIS_NAME_INTERNAL-7 "Attenuator"
*MEAS_COND_AXIS_NAME_INTERNAL-8 "ThetaS"
*MEAS_COND_AXIS_NAME_INTERNAL-9 "ThetaD"
*MEAS_COND_AXIS_NAME_INTERNAL-10 "Ts"
*MEAS_COND_AXIS_NAME_INTERNAL-11 "CBO-M"
*MEAS_COND_AXIS_NAME_INTERNAL-12 "IncidentMonochromator-OmegaM"
*MEAS_COND_AXIS_NAME_INTERNAL-13 "IncidentSlitBox"
*MEAS_COND_AXIS_NAME_INTERNAL-14 "IncidentSlitBox-_Axis"
*MEAS_COND_AXIS_NAME_INTERNAL-15 "Zs"
*MEAS_COND_AXIS_NAME_INTERNAL-16 "ReceivingSlitBox1"
*MEAS_COND_AXIS_NAME_INTERNAL-17 "ReceivingSlitBox1-_Axis"
*MEAS_COND_AXIS_NAME_INTERNAL-18 "ReceivingSlitBox2"
*MEAS_COND_AXIS_NAME_INTERNAL-19 "ReceivingSlitBox2-_Axis"
*MEAS_COND_AXIS_NAME_INTERNAL-20 "ReceivingSlitBox2-Zd"
*MEAS_COND_AXIS_NAME_INTERNAL-21 "CBO"
*MEAS_COND_AXIS_NAME_INTERNAL-22 "IncidentMonochromator"
*MEAS_COND_AXIS_NAME_INTERNAL-23 "IncidentSollerSlit"
*MEAS_COND_AXIS_NAME_INTERNAL-24 "IncidentAxdSlit"
*MEAS_COND_AXIS_NAME_INTERNAL-25 "CenterSlit"
*MEAS_COND_AXIS_NAME_INTERNAL-26 "Filter"
*MEAS_COND_AXIS_NAME_INTERNAL-27 "ReceivingOptics"
*MEAS_COND_AXIS_NAME_INTERNAL-28 "ReceivingSollerSlit"
*MEAS_COND_AXIS_NAME_INTERNAL-29 "ReceivingAxdSlit"
*MEAS_COND_AXIS_NAME_INTERNAL-30 "CounterMonochromator"
*MEAS_COND_AXIS_NAME_INTERNAL-31 "CounterSlit"
*MEAS_COND_AXIS_NAME_INTERNAL-32 "IncidentPrimary"
*MEAS_COND_AXIS_NAME_INTERNAL-33 "HV"
*MEAS_COND_AXIS_NAME_INTERNAL-34 "PHA"
*MEAS_COND_AXIS_NAME_MAGICNO-0 "83951616.0000000000"
*MEAS_COND_AXIS_NAME_MAGICNO-1 "268632064.0000000000"
*MEAS_COND_AXIS_NAME_MAGICNO-2 "268500992.0000000000"
*MEAS_COND_AXIS_NAME_MAGICNO-3 "83951616.0000000000"
*MEAS_COND_AXIS_NAME_MAGICNO-4 "285278208.0000000000"
*MEAS_COND_AXIS_NAME_MAGICNO-5 "285278208.0000000000"
*MEAS_COND_AXIS_NAME_MAGICNO-6 "285278208.0000000000"
*MEAS_COND_AXIS_NAME_MAGICNO-7 "17301505.0000000000"
*MEAS_COND_AXIS_NAME_MAGICNO-8 "131072.0000000000"
*MEAS_COND_AXIS_NAME_MAGICNO-9 "131072.0000000000"
*MEAS_COND_AXIS_NAME_MAGICNO-10 "318898176.0000000000"
*MEAS_COND_AXIS_NAME_MAGICNO-11 "285343744.0000000000"
*MEAS_COND_AXIS_NAME_MAGICNO-12 "285343744.0000000000"
*MEAS_COND_AXIS_NAME_MAGICNO-13 "22020097.0000000000"
*MEAS_COND_AXIS_NAME_MAGICNO-14 "25165824.0000000000"
*MEAS_COND_AXIS_NAME_MAGICNO-15 "318898176.0000000000"
*MEAS_COND_AXIS_NAME_MAGICNO-16 "23068673.0000000000"
*MEAS_COND_AXIS_NAME_MAGICNO-17 "25165824.0000000000"
*MEAS_COND_AXIS_NAME_MAGICNO-18 "23068673.0000000000"
*MEAS_COND_AXIS_NAME_MAGICNO-19 "25165824.0000000000"
*MEAS_COND_AXIS_NAME_MAGICNO-20 "285343744.0000000000"
*MEAS_COND_AXIS_NAME_MAGICNO-21 "20971521.0000000000"
*MEAS_COND_AXIS_NAME_MAGICNO-22 "20971521.0000000000"
*MEAS_COND_AXIS_NAME_MAGICNO-23 "20971521.0000000000"
*MEAS_COND_AXIS_NAME_MAGICNO-24 "20971521.0000000000"
*MEAS_COND_AXIS_NAME_MAGICNO-25 "20971521.0000000000"
*MEAS_COND_AXIS_NAME_MAGICNO-26 "20971521.0000000000"
*MEAS_COND_AXIS_NAME_MAGICNO-27 "20971521.0000000000"
*MEAS_COND_AXIS_NAME_MAGICNO-28 "20971521.0000000000"
*MEAS_COND_AXIS_NAME_MAGICNO-29 "20971521.0000000000"
*MEAS_COND_AXIS_NAME_MAGICNO-30 "20971521.0000000000"
*MEAS_COND_AXIS_NAME_MAGICNO-31 "20971521.0000000000"
*MEAS_COND_AXIS_NAME_MAGICNO-32 "20971521.0000000000"
*MEAS_COND_AXIS_NAME_MAGICNO-33 "0.0000000000"
*MEAS_COND_AXIS_NAME_MAGICNO-34 "0.0000000000"
*MEAS_COND_AXIS_OFFSET-0 "-"
*MEAS_COND_AXIS_OFFSET-1 "0.8253000000"
*MEAS_COND_AXIS_OFFSET-2 "0.8957000000"
*MEAS_COND_AXIS_OFFSET-3 "-"
*MEAS_COND_AXIS_OFFSET-4 "-"
*MEAS_COND_AXIS_OFFSET-5 "-"
*MEAS_COND_AXIS_OFFSET-6 "-"
*MEAS_COND_AXIS_OFFSET-7 "-"
*MEAS_COND_AXIS_OFFSET-8 "0.8957000000"
*MEAS_COND_AXIS_OFFSET-9 "-0.0704000000"
*MEAS_COND_AXIS_OFFSET-10 "-"
*MEAS_COND_AXIS_OFFSET-11 "-"
*MEAS_COND_AXIS_OFFSET-12 "-"
*MEAS_COND_AXIS_OFFSET-13 "-"
*MEAS_COND_AXIS_OFFSET-14 "-"
*MEAS_COND_AXIS_OFFSET-15 "-"
*MEAS_COND_AXIS_OFFSET-16 "-"
*MEAS_COND_AXIS_OFFSET-17 "-"
*MEAS_COND_AXIS_OFFSET-18 "-"
*MEAS_COND_AXIS_OFFSET-19 "-"
*MEAS_COND_AXIS_OFFSET-20 "-"
*MEAS_COND_AXIS_OFFSET-21 "-"
*MEAS_COND_AXIS_OFFSET-22 "-"
*MEAS_COND_AXIS_OFFSET-23 "-"
*MEAS_COND_AXIS_OFFSET-24 "-"
*MEAS_COND_AXIS_OFFSET-25 "-"
*MEAS_COND_AXIS_OFFSET-26 "-"
*MEAS_COND_AXIS_OFFSET-27 "-"
*MEAS_COND_AXIS_OFFSET-28 "-"
*MEAS_COND_AXIS_OFFSET-29 "-"
*MEAS_COND_AXIS_OFFSET-30 "-"
*MEAS_COND_AXIS_OFFSET-31 "-"
*MEAS_COND_AXIS_OFFSET-32 "-"
*MEAS_COND_AXIS_OFFSET-33 "-"
*MEAS_COND_AXIS_OFFSET-34 "-"
*MEAS_COND_AXIS_POSITION-0 "-0.0026000000"
*MEAS_COND_AXIS_POSITION-1 "-0.0026000000"
*MEAS_COND_AXIS_POSITION-2 "-0.0013000000"
*MEAS_COND_AXIS_POSITION-3 "-0.0026000000"
*MEAS_COND_AXIS_POSITION-4 "-1.7435400000"
*MEAS_COND_AXIS_POSITION-5 "0.0000000000"
*MEAS_COND_AXIS_POSITION-6 "0.0000000000"
*MEAS_COND_AXIS_POSITION-7 "1/10000"
*MEAS_COND_AXIS_POSITION-8 "-0.0013000000"
*MEAS_COND_AXIS_POSITION-9 "-0.0013000000"
*MEAS_COND_AXIS_POSITION-10 "-5.6640000000"
*MEAS_COND_AXIS_POSITION-11 "0.0000000000"
*MEAS_COND_AXIS_POSITION-12 "0.0000000000"
*MEAS_COND_AXIS_POSITION-13 "0.100mm"
*MEAS_COND_AXIS_POSITION-14 "0.1000000000"
*MEAS_COND_AXIS_POSITION-15 "-1.5953100000"
*MEAS_COND_AXIS_POSITION-16 "0.200mm"
*MEAS_COND_AXIS_POSITION-17 "0.2000000000"
*MEAS_COND_AXIS_POSITION-18 "0.200mm"
*MEAS_COND_AXIS_POSITION-19 "0.2000000000"
*MEAS_COND_AXIS_POSITION-20 "0.2634400000"
*MEAS_COND_AXIS_POSITION-21 "PB"
*MEAS_COND_AXIS_POSITION-22 "Ge(220)x2"
*MEAS_COND_AXIS_POSITION-23 "Soller_slit_2.5deg_s"
*MEAS_COND_AXIS_POSITION-24 "10.0mm"
*MEAS_COND_AXIS_POSITION-25 "None"
*MEAS_COND_AXIS_POSITION-26 "None"
*MEAS_COND_AXIS_POSITION-27 "PSA_open"
*MEAS_COND_AXIS_POSITION-28 "Soller_slit_2.5deg"
*MEAS_COND_AXIS_POSITION-29 "None"
*MEAS_COND_AXIS_POSITION-30 "None"
*MEAS_COND_AXIS_POSITION-31 "None"
*MEAS_COND_AXIS_POSITION-32 "None"
*MEAS_COND_AXIS_POSITION-33 "660.0000000000"
*MEAS_COND_AXIS_POSITION-34 "562.5000000000"
*MEAS_COND_AXIS_UNIT-0 "deg"
*MEAS_COND_AXIS_UNIT-1 "deg"
*MEAS_COND_AXIS_UNIT-2 "deg"
*MEAS_COND_AXIS_UNIT-3 "deg"
*MEAS_COND_AXIS_UNIT-4 "mm"
*MEAS_COND_AXIS_UNIT-5 "deg"
*MEAS_COND_AXIS_UNIT-6 "deg"
*MEAS_COND_AXIS_UNIT-7 ""
*MEAS_COND_AXIS_UNIT-8 "deg"
*MEAS_COND_AXIS_UNIT-9 "deg"
*MEAS_COND_AXIS_UNIT-10 "mm"
*MEAS_COND_AXIS_UNIT-11 "pulse"
*MEAS_COND_AXIS_UNIT-12 "pulse"
*MEAS_COND_AXIS_UNIT-13 ""
*MEAS_COND_AXIS_UNIT-14 "mm"
*MEAS_COND_AXIS_UNIT-15 "mm"
*MEAS_COND_AXIS_UNIT-16 ""
*MEAS_COND_AXIS_UNIT-17 "mm"
*MEAS_COND_AXIS_UNIT-18 ""
*MEAS_COND_AXIS_UNIT-19 "mm"
*MEAS_COND_AXIS_UNIT-20 "mm"
*MEAS_COND_AXIS_UNIT-21 ""
*MEAS_COND_AXIS_UNIT-22 ""
*MEAS_COND_AXIS_UNIT-23 ""
*MEAS_COND_AXIS_UNIT-24 ""
*MEAS_COND_AXIS_UNIT-25 ""
*MEAS_COND_AXIS_UNIT-26 ""
*MEAS_COND_AXIS_UNIT-27 ""
*MEAS_COND_AXIS_UNIT-28 ""
*MEAS_COND_AXIS_UNIT-29 ""
*MEAS_COND_AXIS_UNIT-30 ""
*MEAS_COND_AXIS_UNIT-31 ""
*MEAS_COND_AXIS_UNIT-32 ""
*MEAS_COND_AXIS_UNIT-33 "V"
*MEAS_COND_AXIS_UNIT-34 "mV"
*MEAS_COND_COUNTER_CNTLOSS_CORR "1.0000000000"
*MEAS_COND_COUNTER_PHABASE "562.5000000000"
*MEAS_COND_COUNTER_PHAWINDOW "900.0000000000"
*MEAS_COND_COUNTER_PHA_UNIT "mV"
*MEAS_COND_COUNTER_TAUDIFF "0.1931560000"
*MEAS_COND_COUNTER_TAUINT "0.6715790000"
*MEAS_COND_IRRADIATION_MODE "OFF"
*MEAS_COND_IRRADIATION_WIDTH ""
*MEAS_COND_OPT_ATTR "High resolution parallel beam Ge(220)x2/RS"
*MEAS_COND_OPT_NAME "@High resolution PB-Ge(220)x2"
*MEAS_COND_UNSYMMETRIC_MODE "OFF"
*MEAS_COND_XG_CURRENT "200.0000000000"
*MEAS_COND_XG_VOLTAGE "45.0000000000"
*MEAS_COND_XG_WAVE_TYPE "Ka1"
*MEAS_DATA_COUNT "3847.0000000000"
*MEAS_SCAN_AXIS_X "2-Theta/Omega"
*MEAS_SCAN_AXIS_X_INTERNAL "TwoThetaOmega"
*MEAS_SCAN_END_TIME "05/03/12 08:16:32"
*MEAS_SCAN_MODE "CONTINUOUS"
*MEAS_SCAN_MONITOR "0"
*MEAS_SCAN_RESOLUTION_X "0.0002"
*MEAS_SCAN_SPEED "0.0250"
*MEAS_SCAN_SPEED_UNIT "deg/min"
*MEAS_SCAN_START "0.0000000000"
*MEAS_SCAN_START_TIME "05/02/12 18:54:56"
*MEAS_SCAN_STEP "0.0052000000"
*MEAS_SCAN_STOP "19.9992000000"
*MEAS_SCAN_UNIT_X "deg"
*MEAS_SCAN_UNIT_Y "counts"
*RAS_HEADER_END
*RAS_INT_START
0.0000 324762.0313 858.8360
0.0052 336869.0000 858.8360
0.0104 338748.0313 858.8360
0.0156 329010.0000 858.8360
0.0208 284297.0000 858.8360
0.0260 198668.0000 858.8360
0.0312 125822.0000 858.8360
0.0364 101333.0078 858.8360
0.0416 101424.0000 858.8360
0.0468 108331.0000 858.8360
0.0520 118483.0000 858.8360
0.0572 128444.0000 858.8360
0.0624 139862.0000 858.8360
0.0676 151239.0000 858.8360
0.0728 162071.0000 858.8360
0.0780 172156.0000 858.8360
0.0832 183558.0000 858.8360
0.0884 194063.0000 858.8360
0.0936 205351.0000 858.8360
0.0988 214922.0000 858.8360
0.1040 224319.0000 858.8360
0.1092 235823.0000 858.8360
0.1144 246068.0156 858.8360
0.1196 254523.0000 858.8360
0.1248 264262.0000 858.8360
0.1300 274028.0000 858.8360
0.1352 283974.0000 858.8360
0.1404 292145.0000 858.8360
0.1456 301857.0000 858.8360
0.1508 309036.0000 858.8360
0.1560 318397.0000 858.8360
0.1612 327342.0000 858.8360
0.1664 334587.0000 858.8360
0.1716 341714.0000 858.8360
0.1768 350514.0000 858.8360
0.1820 357897.0000 858.8360
0.1872 365880.0000 858.8360
0.1924 371496.0000 858.8360
0.1976 378014.0000 858.8360
0.2028 384058.9688 858.8360
0.2080 390887.9688 858.8360
0.2132 396928.0000 858.8360
0.2184 403389.0000 858.8360
0.2236 408718.0000 858.8360
0.2288 414675.0000 858.8360
0.2340 419691.0000 858.8360
0.2392 424404.0000 858.8360
0.2444 428822.0000 858.8360
0.2496 433473.0000 858.8360
0.2548 439369.0000 858.8360
0.2600 441947.0000 858.8360
0.2652 446472.0000 858.8360
0.2704 451602.0000 858.8360
0.2756 454897.0000 858.8360
0.2808 458404.0000 858.8360
0.2860 460638.0313 858.8360
0.2912 465681.0000 858.8360
0.2964 468268.0000 858.8360
0.3016 471911.0000 858.8360
0.3068 475283.0000 858.8360
0.3120 478772.0000 858.8360
0.3172 481377.0000 858.8360
0.3224 483503.0000 858.8360
0.3276 486082.0313 858.8360
0.3328 488395.0000 858.8360
0.3380 491587.0000 858.8360
0.3432 493734.0000 858.8360
0.3484 496953.0000 858.8360
0.3536 499061.0000 858.8360
0.3588 501501.0000 858.8360
0.3640 502654.0000 858.8360
0.3692 504365.0000 858.8360
0.3744 505971.0000 858.8360
0.3796 508200.0000 858.8360
0.3848 510125.0313 858.8360
0.3900 511990.0000 858.8360
0.3952 512889.0313 858.8360
0.4004 514948.0000 858.8360
0.4056 516276.0000 858.8360
0.4108 516402.9688 858.8360
0.4160 518254.0000 858.8360
0.4212 520187.0000 858.8360
0.4264 520920.0313 858.8360
0.4316 522140.9688 858.8360
0.4368 523157.0313 858.8360
0.4420 523490.0000 858.8360
0.4472 524345.0000 858.8360
0.4524 526741.0000 858.8360
0.4576 526357.0000 858.8360
0.4628 529040.0000 858.8360
0.4680 528369.0000 858.8360
0.4732 528703.0000 858.8360
0.4784 531172.0000 858.8360
0.4836 531897.0000 858.8360
0.4888 530507.0000 858.8360
0.4940 531990.0000 858.8360
0.4992 534753.0000 858.8360
0.5044 532832.0000 858.8360
0.5096 533607.0000 858.8360
0.5148 533011.0000 858.8360
0.5200 535394.0000 858.8360
0.5252 535478.0000 858.8360
0.5304 536089.0000 858.8360
0.5356 536647.0000 858.8360
0.5408 537040.0000 858.8360
0.5460 537289.0000 858.8360
0.5512 536265.0000 858.8360
0.5564 537922.0000 858.8360
0.5616 537243.0000 858.8360
0.5668 537046.0000 858.8360
0.5720 537722.0000 858.8360
0.5772 537591.0000 858.8360
0.5824 538922.0000 858.8360
0.5876 538158.0000 858.8360
0.5928 538332.0000 858.8360
0.5980 537471.0000 858.8360
0.6032 537097.0000 858.8360
0.6084 537668.0000 858.8360
0.6136 537440.0000 858.8360
0.6188 534871.0000 858.8360
0.6240 536561.0000 858.8360
0.6292 536635.0000 858.8360
0.6344 537336.0000 858.8360
0.6396 536291.0000 858.8360
0.6448 534179.0000 858.8360
0.6500 533209.0000 858.8360
0.6552 533127.0000 858.8360
0.6604 533951.0000 858.8360
0.6656 531377.0000 858.8360
0.6708 531758.0000 858.8360
0.6760 529369.0000 858.8360
0.6812 529658.0000 858.8360
0.6864 526984.0000 858.8360
0.6916 526455.0000 858.8360
0.6968 525000.0000 858.8360
0.7020 523600.0000 858.8360
0.7072 522108.0000 858.8360
0.7124 518077.0000 858.8360
0.7176 518016.0000 858.8360
0.7228 514923.0000 858.8360
0.7280 512719.0000 858.8360
0.7332 508009.0000 858.8360
0.7384 505631.0000 858.8360
0.7436 501338.0313 858.8360
0.7488 497402.0000 858.8360
0.7540 490932.0000 858.8360
0.7592 484117.9688 858.8360
0.7644 475184.0000 858.8360
0.7696 463386.0000 858.8360
0.7748 446284.0000 858.8360
0.7800 426523.0000 858.8360
0.7852 397027.0000 858.8360
0.7904 361958.0000 858.8360
0.7956 321077.0000 858.8360
0.8008 278523.0000 858.8360
0.8060 237390.0000 858.8360
0.8112 202018.0000 858.8360
0.8164 172940.0000 858.8360
0.8216 148218.0000 858.8360
0.8268 130235.0000 858.8360
0.8320 114299.0000 858.8360
0.8372 101029.0000 858.8360
0.8424 89864.0000 858.8360
0.8476 81499.0000 858.8360
0.8528 75169.0000 858.8360
0.8580 69616.0000 858.8360
0.8632 1197860.0000 41.8682
0.8684 1066750.0000 41.8682
0.8736 984604.0000 41.8682
0.8788 955290.0000 41.8682
0.8840 924682.0000 41.8682
0.8892 848476.0000 41.8682
0.8944 739044.0000 41.8682
0.8996 646127.0000 41.8682
0.9048 609403.0000 41.8682
0.9100 623107.0000 41.8682
0.9152 638291.0000 41.8682
0.9204 612613.0000 41.8682
0.9256 532935.0000 41.8682
0.9308 443839.0000 41.8682
0.9360 384359.0000 41.8682
0.9412 380007.0000 41.8682
0.9464 413840.0000 41.8682
0.9516 446109.9688 41.8682
0.9568 436555.0000 41.8682
0.9620 385935.0000 41.8682
0.9672 310318.0000 41.8682
0.9724 249330.0000 41.8682
0.9776 231134.0156 41.8682
0.9828 253615.0156 41.8682
0.9880 293613.0000 41.8682
0.9932 319501.0000 41.8682
0.9984 311804.0000 41.8682
1.0036 268108.0000 41.8682
1.0088 208110.0000 41.8682
1.0140 159514.0000 41.8682
1.0192 143037.0000 41.8682
1.0244 158865.0000 41.8682
1.0296 193759.0000 41.8682
1.0348 225436.0156 41.8682
1.0400 233334.0156 41.8682
1.0452 211806.0000 41.8682
1.0504 171121.0000 41.8682
1.0556 125906.0000 41.8682
1.0608 96019.0000 41.8682
1.0660 91198.0000 41.8682
1.0712 109483.0000 41.8682
1.0764 139311.0000 41.8682
1.0816 163126.0000 41.8682
1.0868 170386.0000 41.8682
1.0920 155903.0000 41.8682
1.0972 126247.0000 41.8682
1.1024 91982.0000 41.8682
1.1076 66509.0000 41.8682
1.1128 2658050.0000 1.0000
1.1180 3111860.0000 1.0000
1.1232 4086130.0000 1.0000
1.1284 113078.0078 41.8682
1.1336 125348.0000 41.8682
1.1388 124007.9922 41.8682
1.1440 106837.0000 41.8682
1.1492 82401.0000 41.8682
1.1544 2621540.0000 1.0000
1.1596 1935500.0000 1.0000
1.1648 1842140.0000 1.0000
1.1700 2301110.0000 1.0000
1.1752 3085730.0000 1.0000
1.1804 3832370.0000 1.0000
1.1856 4252450.0000 1.0000
1.1908 4163570.0000 1.0000
1.1960 3584960.0000 1.0000
1.2012 2758050.0000 1.0000
1.2064 1940010.0000 1.0000
1.2116 1408240.0000 1.0000
1.2168 1299800.0000 1.0000
1.2220 1598200.0000 1.0000
1.2272 2169240.0000 1.0000
1.2324 2773050.0000 1.0000
1.2376 3172930.0000 1.0000
1.2428 3220760.0000 1.0000
1.2480 2908260.0000 1.0000
1.2532 2334790.0000 1.0000
1.2584 1693340.0000 1.0000
1.2636 1186650.0000 1.0000
1.2688 959474.0000 1.0000
1.2740 1052200.0000 1.0000
1.2792 1400130.0000 1.0000
1.2844 1865570.0000 1.0000
1.2896 2275450.0000 1.0000
1.2948 2484500.0000 1.0000
1.3000 2425930.0000 1.0000
1.3052 2109840.0000 1.0000
1.3104 1651610.0000 1.0000
1.3156 1178240.0000 1.0000
1.3208 849330.0000 1.0000
1.3260 732724.0000 1.0000
1.3312 849235.0000 1.0000
1.3364 1144260.0000 1.0000
1.3416 1497570.0000 1.0000
1.3468 1796400.0000 1.0000
1.3520 1940810.0000 1.0000
1.3572 1881780.0000 1.0000
1.3624 1639180.0000 1.0000
1.3676 1290180.0000 1.0000
1.3728 936985.0000 1.0000
